# Measurement of PMT-Gain of det2 with different voltage-supply, no angle, threshold 70mV, t = 60s, with source
# [Voltage [V]] [Counts in 60 secs]
1400 2027
1410 3252
1420 4357
1430 6648
1440 9330 
1450 9631
1460 11906
1470 17266
1480 18632
1490 20038
1500 21431
1510 23635
1520 23230
1530 26862
1540 26979
1550 28893
1560 29921
1570 28356
1580 30742
1590 34092 
1600 38977
1610 42579
1620 47261
